/*--------------------------------*- C++ -*----------------------------------*\
| =========                 |                                                 |
| \\      /  F ield         | OpenFOAM: The Open Source CFD Toolbox           |
|  \\    /   O peration     | Version:  2112                                  |
|   \\  /    A nd           | Website:  www.openfoam.com                      |
|    \\/     M anipulation  |                                                 |
\*---------------------------------------------------------------------------*/
FoamFile
{
    version     2.0;
    format      ascii;
    arch        "LSB;label=32;scalar=64";
    class       volScalarField;
    location    "0.01";
    object      ddt0(k);
}
// * * * * * * * * * * * * * * * * * * * * * * * * * * * * * * * * * * * * * //

dimensions      [0 2 -3 0 0 0 0];

internalField   nonuniform List<scalar> 
12885
(
808.374
44.2425
-2876.6
-1268.27
1299.74
2677.38
2558.13
1562.87
-4010.26
-6279.32
-1913.57
2371.51
5123.84
5689.6
4164.12
-1942.26
-9234.36
-7055.55
-3102.54
1242.14
4889.72
7028.19
6751.2
3264.18
-1474.34
-4383.2
-5513.57
-5200.33
-3863.46
-1968.58
66.1247
1821.45
3070.19
3616.58
3578.61
3003.55
2121.98
1250.26
-65.4918
-425.933
46.519
20.5618
-140.376
-174.771
98.552
188.321
191.318
129.981
-102.832
-884.91
-552.937
339.089
969.976
1053.6
812.969
202.2
-1605.13
-2288.93
-1753.46
-460.953
1041.35
2353.62
2848.69
2074.59
763.038
-673.955
-1767.6
-2410.14
-2645.84
-2323.68
-1498.58
-414.012
709.576
1587.66
2156.66
2308.02
2199.76
1755.63
1371.73
721.289
7.73066
3.06732
-17.6419
-16.8044
-6.9785
15.3862
19.5038
18.3118
-5.36717
-20.3433
-45.4737
24.8239
67.7439
78.3044
68.1094
33.0042
-52.6611
-243.596
-355.271
-255.306
-10.1277
304.258
483.675
535.487
477.565
266.285
-8.83278
-296.822
-591.426
-837.432
-903.716
-801.91
-494.671
-101.646
344.623
703.785
997.252
1135.1
1182.46
1085.92
2.33308
1.06728
-4.2314
-5.87749
-3.58787
2.68582
4.93908
3.75699
2.65715
-1.47829
-4.54474
4.69557
10.3804
7.16358
9.22241
-1.46809
-15.3995
-22.3578
-35.6194
-41.0764
-18.6636
17.0524
40.8095
56.0103
56.4455
54.1543
41.9554
9.78504
-23.5532
-62.838
-108.525
-155.107
-159.955
-121.694
-72.9585
22.6737
96.298
188.405
236.81
320.505
1.05164
-0.397625
-1.60827
-2.41678
-1.71661
0.769011
2.00705
1.80079
1.33181
-0.216511
-1.28317
1.13096
2.58883
1.80137
1.96146
-0.828776
-4.24952
-5.95231
-8.72391
-9.60174
-6.93498
-1.36865
5.11344
9.31332
10.8832
13.821
16.0289
8.67203
3.31006
0.887547
-6.85468
-15.4679
-22.9061
-24.4501
-24.5709
-16.0792
-7.67975
8.86027
13.7525
29.5548
0.405569
-0.459322
-0.919955
-1.2048
-0.886921
0.290893
0.990471
0.987968
0.612806
-0.126141
-0.435781
0.388035
0.887528
0.667363
0.3639
-0.573148
-1.71898
-2.68585
-3.34455
-3.15065
-2.52691
-0.797827
1.51249
3.20007
4.23503
5.46314
6.01842
4.79383
3.18597
1.60035
0.129134
-2.85683
-5.65502
-6.11274
-7.74245
-7.17079
-6.19984
-3.75948
-2.13381
0.679751
0.139946
-0.313458
-0.597658
-0.648256
-0.480025
0.139827
0.511276
0.521186
0.29865
-0.0121031
-0.0669097
0.244066
0.391998
0.219432
-0.0960641
-0.539338
-0.988131
-1.35009
-1.47219
-1.30373
-0.877599
-0.13244
0.751685
1.4443
1.91632
2.31728
2.4413
2.11866
1.56721
0.913981
0.141637
-0.697798
-1.43919
-2.24568
-2.86156
-3.07468
-2.97287
-2.52783
-1.97886
-1.3057
0.0423916
-0.18418
-0.357375
-0.363675
-0.258188
0.0624851
0.259991
0.267644
0.165168
0.0624145
0.0807754
0.194144
0.195692
0.0291602
-0.219035
-0.469884
-0.660269
-0.753946
-0.708311
-0.531973
-0.249794
0.111334
0.473278
0.745264
0.914817
1.00972
0.993371
0.843377
0.607181
0.323023
-0.00808935
-0.362577
-0.701342
-1.0163
-1.25965
-1.38872
-1.41174
-1.34367
-1.19445
-0.98173
0.0102344
-0.0983884
-0.193506
-0.197962
-0.138296
0.0245259
0.127329
0.137249
0.106138
0.0916783
0.120716
0.150612
0.0998896
-0.0432442
-0.221978
-0.375397
-0.460539
-0.460141
-0.373727
-0.223609
-0.0391238
0.148981
0.305772
0.405504
0.44675
0.439543
0.384434
0.285552
0.158864
0.018365
-0.126018
-0.289655
-0.45121
-0.593376
-0.70054
-0.762145
-0.777664
-0.751745
-0.689809
-0.603612
0.00123592
-0.0488789
-0.0959751
-0.100618
-0.0719456
0.00537063
0.0573231
0.0719405
0.0775635
0.0944223
0.114281
0.106206
0.048326
-0.0646163
-0.180527
-0.276572
-0.320881
-0.30176
-0.227221
-0.119038
-0.000883911
0.107118
0.188659
0.233435
0.239541
0.210823
0.152842
0.0735383
-0.016477
-0.108502
-0.192034
-0.265712
-0.3285
-0.377224
-0.408699
-0.421205
-0.407443
-0.372419
-0.329976
-0.290484
-0.000619832
-0.022895
-0.0443973
-0.0459041
-0.0347437
-0.00401261
0.0187104
0.0344989
0.061274
0.0987565
0.120849
0.0974871
0.025318
-0.0839701
-0.190933
-0.262968
-0.277456
-0.23034
-0.13907
-0.0336002
0.0579752
0.118496
0.142655
0.133338
0.0974376
0.0429476
-0.0218452
-0.0901686
-0.154959
-0.209968
-0.252109
-0.266642
-0.26263
-0.245326
-0.218977
-0.188161
-0.153702
-0.135379
-0.109106
-0.0961221
-0.000721926
-0.00916016
-0.0197222
-0.0194162
-0.0155185
-0.00616958
0.000176566
0.0116846
0.0447683
0.0936575
0.124581
0.104049
0.023294
-0.0892963
-0.205847
-0.277465
-0.279601
-0.211853
-0.0992399
0.0193942
0.10871
0.149013
0.138389
0.087258
0.010878
-0.0760622
-0.156755
-0.227325
-0.280546
-0.310526
-0.316068
-0.295267
-0.275495
-0.230498
-0.184708
-0.136222
-0.0952269
-0.06567
-0.0464556
-0.0387876
3.1575e-05
-0.0037556
-0.00753363
-0.00707342
-0.00521241
-0.00334474
-0.000995873
0.00782291
0.0316266
0.0662046
0.0881476
0.0735094
0.0146198
-0.0742255
-0.16323
-0.220655
-0.226458
-0.179004
-0.0951162
-0.00277493
0.0702668
0.105854
0.0989127
0.0552697
-0.013908
-0.101974
-0.155086
-0.221913
-0.284422
-0.308549
-0.314477
-0.302515
-0.278288
-0.245328
-0.207747
-0.170446
-0.137648
-0.111963
-0.0948256
-0.0870252
0.000297706
-0.00128466
-0.00284462
-0.00279245
-0.00121519
-4.29761e-05
0.00375057
0.00927665
0.0189331
0.029798
0.0335612
0.0218889
-0.00779904
-0.0494011
-0.0905208
-0.118277
-0.124649
-0.108902
-0.0772693
-0.0402974
-0.00903845
0.00821713
0.00760491
-0.0103125
-0.0416812
-0.081006
-0.120217
-0.157346
-0.188538
-0.210712
-0.223532
-0.227896
-0.225613
-0.218744
-0.209374
-0.199509
-0.190831
-0.184605
-0.181697
-0.182607
0.000450345
9.2674e-05
-0.000478095
-0.000307056
0.00126045
0.00268347
0.00505876
0.00700316
0.00657521
0.00382462
-0.00177776
-0.00997548
-0.0194047
-0.0280615
-0.0343366
-0.0376759
-0.0386261
-0.0384449
-0.0386157
-0.0403855
-0.044439
-0.0508205
-0.05908
-0.0685097
-0.0783539
-0.0879493
-0.096792
-0.104804
-0.112055
-0.118745
-0.125204
-0.131809
-0.138913
-0.146784
-0.155591
-0.165404
-0.176203
-0.187885
-0.200306
-0.213216
0.000446431
0.000710581
0.000715481
0.000854097
0.00133866
0.00185653
0.0019194
0.00109001
-0.00104901
-0.00445711
-0.0082257
-0.0110947
-0.012016
-0.0108099
-0.0083091
-0.00608325
-0.00578419
-0.0085367
-0.0146293
-0.023523
-0.0340818
-0.0449308
-0.0547986
-0.0627787
-0.0684591
-0.0719334
-0.0736924
-0.0744757
-0.0751032
-0.0763365
-0.0787848
-0.0828559
-0.0887487
-0.0964741
-0.10589
-0.116764
-0.128792
-0.14164
-0.155007
-0.168642
0.000219982
0.000433599
0.00044802
0.000352822
0.000229872
2.48309e-05
-0.000462038
-0.000966744
-0.00183357
-0.00227018
-0.00266059
-0.0025748
-0.00196399
-0.00104901
-0.000217837
6.42689e-05
-0.000597751
-0.0023798
-0.0052153
-0.00884541
-0.012912
-0.0170458
-0.020951
-0.0244535
-0.0275154
-0.0302149
-0.0327155
-0.0352229
-0.0379435
-0.0410538
-0.0446821
-0.0489029
-0.0537404
-0.0591765
-0.0651628
-0.0716177
-0.0784527
-0.085576
-0.0929161
-0.100416
-0.000121632
-0.000362531
-0.000623627
-0.000848603
-0.000884273
-0.000578516
0.000112384
0.00110069
0.00173982
0.00259854
0.00326297
0.00385202
0.00436076
0.00478044
0.00512016
0.00545809
0.00592392
0.00661945
0.0075778
0.00874
0.00997146
0.0111011
0.0119679
0.0124586
0.0125258
0.0121868
0.011509
0.0105899
0.00953387
0.00842159
0.00728964
0.0061396
0.0049515
0.00369518
0.00233852
0.000852136
-0.000788776
-0.00260521
-0.00461881
-0.00683944
-0.000339439
-0.00107783
-0.0017533
-0.00212829
-0.00181692
-0.000454209
0.00200831
0.00511073
0.00695814
0.00876776
0.00933212
0.00930808
0.00919617
0.00950768
0.0105826
0.0125366
0.0152515
0.0183839
0.0217926
0.0251724
0.0284028
0.031498
0.0345616
0.037719
0.0410615
0.0446188
0.0483614
0.0522134
0.0560447
0.0596574
0.0628582
0.0655465
0.0677479
0.0695629
0.0711214
0.0725528
0.0739715
0.0754372
0.0770616
0.078339
-0.000354099
-0.00137973
-0.002393
-0.00295286
-0.00240297
-2.8102e-05
0.0043737
0.00979621
0.0143867
0.0160712
0.0157437
0.0137362
0.0115645
0.0112729
0.0137503
0.018654
0.0248776
0.0287237
0.0333857
0.0358159
0.0374788
0.0394796
0.0428629
0.0482116
0.0554842
0.0640811
0.0730644
0.0813761
0.0877601
0.0911794
0.0935656
0.0951037
0.0961054
0.0968924
0.0977443
0.0988781
0.100435
0.10248
0.105009
0.107972
-0.000174852
-0.00135792
-0.0023937
-0.00266087
-0.00152646
0.00189548
0.00848618
0.0173448
0.0251099
0.0282763
0.0246865
0.0178054
0.0113956
0.00932844
0.0131695
0.0216058
0.0314429
0.0393575
0.0437964
0.0448059
0.0440136
0.0436602
0.0456698
0.0510005
0.059439
0.0698178
0.0805508
0.0899995
0.0965463
0.1028
0.108087
0.111257
0.112719
0.113249
0.113535
0.114095
0.11527
0.117222
0.119959
0.123374
-0.000149734
-0.00245043
-0.00265014
-4.80754e-05
0.00447842
0.00919811
0.0157727
0.0263658
0.0376747
0.0424947
0.0362315
0.0218015
0.00659964
-0.00111803
0.00329836
0.0183936
0.0379574
0.0547549
0.0638382
0.0639792
0.057489
0.0488004
0.0424907
0.0415969
0.0468914
0.0572306
0.0704769
0.0844912
0.0983322
0.112526
0.122535
0.128567
0.131449
0.132375
0.132565
0.133007
0.134335
0.136816
0.14041
0.144852
-0.00208528
-0.0126098
-0.011204
0.00199042
0.0226134
0.0332072
0.0317185
0.0333253
0.0447396
0.0550036
0.0504057
0.0284995
-0.0019511
-0.0249138
-0.0259778
-0.00261152
0.0354305
0.0732483
0.0981089
0.103071
0.0888528
0.0631703
0.0369759
0.0192596
0.0137884
0.0197975
0.0341419
0.0532708
0.0746377
0.096578
0.117373
0.135868
0.151641
0.164953
0.176411
0.186542
0.195562
0.20342
0.209879
0.214581
-0.00935463
-0.0554784
-0.0518024
-0.0133139
0.0652602
0.106019
0.074852
0.026911
0.0205705
0.0481496
0.0682717
0.0573867
0.0108765
-0.049494
-0.0831608
-0.0686031
-0.0105294
0.0685625
0.145248
0.193183
0.193201
0.14636
0.0745746
0.00338422
-0.0552685
-0.0971425
-0.121605
-0.130668
-0.121111
-0.086872
-0.0271322
0.0519918
0.14118
0.232024
0.318487
0.395414
0.457681
0.50217
0.528189
0.536268
-0.0242097
-0.19484
-0.18276
-0.0795259
0.153896
0.318227
0.206392
-0.0273386
-0.118208
-0.0327933
0.0859706
0.157363
0.121122
-0.0212251
-0.155365
-0.218969
-0.173566
-0.0498601
0.169075
0.412257
0.55308
0.516686
0.346497
0.1223
-0.150871
-0.435939
-0.673478
-0.858245
-0.965927
-0.926738
-0.715697
-0.370955
0.0450874
0.479454
0.898425
1.26967
1.54193
1.69427
1.74471
1.70871
-0.0174649
-0.604356
-0.526286
-0.264074
0.312777
0.94216
0.634091
-0.25605
-0.658224
-0.321994
0.122795
0.436935
0.481615
0.111936
-0.218008
-0.464442
-0.405015
-0.444704
0.0715399
1.04239
1.81941
1.87068
1.40773
0.872811
-0.0972368
-1.41544
-2.48111
-3.28812
-4.20376
-4.53692
-3.84191
-2.40129
-0.643964
1.23366
3.14931
4.96708
6.11624
6.36787
6.28295
6.02742
0.162618
-2.02721
-1.2929
-0.726554
0.465535
3.06762
2.24635
-1.31482
-2.96927
-1.33011
0.651781
1.39871
1.74637
0.318702
-0.876141
-1.34389
-3.28293
-2.38265
0.830989
5.60025
8.80309
8.16722
5.92261
4.76315
-0.0641775
-10.0393
-12.7597
-15.854
-20.6804
-22.5147
-15.0762
-3.73766
5.95701
9.70052
22.2758
30.3462
34.048
25.892
22.5637
19.7045
1.3069
-8.61641
-3.41385
-0.984058
1.64634
10.1995
9.96163
-7.37021
-17.6028
-10.3931
10.8627
11.1658
12.5858
5.11492
-8.25474
-15.9125
-37.4236
-34.7181
14.3706
51.3049
69.0308
63.9456
55.4381
33.7722
-1.00612
-89.2409
-121.671
-158.906
-193.795
-176.885
-76.8832
61.0788
180.787
262.016
297.489
289.921
248.778
181.883
91.8252
-7.6803
11.5383
-63.0714
-32.113
34.7102
68.9985
45.8284
26.6387
-66.4458
-323.67
-16.4972
242.479
304.722
253.294
119.535
-58.8209
-731.384
-864.738
-511.195
143.562
825.028
1163.3
1080.47
774.908
336.843
-958.769
-1408.99
-1518.5
-1439.05
-1215.5
-634.138
362.797
1379.42
2078.85
2319.14
2067.99
1449.93
650.238
-152.859
-844.169
-1359.51
221.535
-1124.33
-868.61
829.472
1721.12
1528.24
771.362
-3478.25
-2939.83
-588.225
1573.35
2860.03
3077.64
2287.76
-279.335
-6215.59
-4768.56
-2215.01
638.152
3087.97
4712.04
5242.56
4379.76
1052.7
-4978.08
-6184.51
-5818.93
-4260.94
-2166.61
85.2671
2439.22
4525.98
5729.86
5692.28
4515.74
2627.45
518.486
-1412.4
-2934.57
-3927
-24.2068
-24.4552
-25.0019
-25.8691
-27.0859
-28.6765
-30.6622
-33.1488
-35.4594
-37.8476
-40.9462
-44.8869
-49.4758
-54.4443
-59.4294
-64.5406
-68.1758
-71.8244
-74.7992
-77.2
-79.122
-80.7452
-82.3855
-84.4331
-87.2337
-90.9456
-95.5107
-100.757
-106.52
-112.667
-119.012
-125.22
-130.801
-135.29
-138.341
-139.537
-138.214
-133.613
-124.853
-110.546
-88.7611
-57.3889
-14.189
42.7171
113.576
205.312
329.212
475.358
639.789
823.04
1028.65
1126.07
1351.42
1486.2
1591.52
1635.52
1599.37
1528.78
1429.02
1310.88
1177.28
1035.4
900.752
796.514
696.309
600.564
507.637
418.165
335.028
261.445
196.81
128.718
69.2171
-55.1186
-73.7246
-74.4773
-68.6825
-60.445
-50.5194
-39.5257
-27.8528
-15.834
-3.77848
8.07267
19.6309
30.8168
41.5494
51.7519
61.3493
70.269
78.4442
85.8142
92.3307
97.9799
102.794
106.815
109.482
111.258
113.174
113.321
112.89
111.879
110.314
108.24
105.736
102.877
99.7368
96.391
92.9106
89.3612
85.8008
82.2791
78.8422
75.5345
72.3932
69.4433
66.6994
64.1701
61.8593
59.768
57.8964
56.2418
54.7975
53.5504
52.4812
51.567
50.7843
50.1107
49.527
49.0185
48.5729
48.1807
47.8347
47.5286
47.2577
47.0176
46.8039
46.6111
46.4332
46.2643
46.0992
45.9345
45.7683
45.6005
45.4311
45.2613
45.0917
44.9225
44.7531
44.5827
44.4105
44.2356
44.0572
43.8741
43.685
43.4884
43.2827
43.0663
42.8382
42.5977
42.3444
42.0792
41.8011
41.5121
41.2093
40.8979
40.5703
40.2414
39.889
39.5508
39.1659
38.7977
38.4052
37.8213
37.6003
36.6804
36.3267
34.8617
34.802
31.3376
-24.2738
-24.4773
-24.954
-25.7049
-26.7368
-28.0449
-29.5987
-31.3244
-32.9582
-34.7978
-36.9918
-39.5728
-42.4681
-45.5084
-48.4059
-50.8669
-52.4282
-53.187
-53.339
-52.7412
-51.5113
-49.8214
-47.9759
-46.3011
-45.0369
-44.2275
-43.7299
-43.3293
-42.8421
-42.1202
-40.9918
-39.1835
-36.3338
-32.135
-26.3954
-18.8856
-9.22798
2.98993
18.2285
37.2112
60.8723
90.1308
125.949
168.62
216.985
273.831
353.722
447.734
505.485
598.483
646.546
636.399
605.619
556.436
467.105
380.697
318.217
271.624
243.067
226.817
223.451
228.59
232.25
211.616
196.491
184.368
173.423
161.783
148.566
131.926
109.112
74.2008
36.3315
-25.0332
-21.3739
-17.1328
-14.9288
-12.6427
-10.0229
-7.09864
-3.7282
-0.161637
3.57384
7.41051
11.3044
15.2031
19.0489
22.7858
26.361
29.7236
32.8319
35.6476
38.1374
40.2976
42.1431
43.6668
44.5454
45.1077
45.7947
46.0453
45.6347
45.1761
44.5212
43.6707
42.6666
41.5381
40.3137
39.0243
37.6967
36.3554
35.0227
33.7163
32.4515
31.2427
30.1023
29.038
28.053
27.1494
26.3277
25.5873
24.9265
24.3425
23.8315
23.3881
23.005
22.674
22.387
22.1365
21.916
21.7209
21.5471
21.3913
21.2511
21.1242
21.0088
20.9031
20.8056
20.7141
20.6266
20.5411
20.4561
20.3706
20.2838
20.1959
20.1064
20.0157
19.9237
19.8304
19.7355
19.639
19.5406
19.4402
19.3376
19.2324
19.124
19.0118
18.8951
18.7733
18.646
18.5129
18.3736
18.2287
18.0771
17.9203
17.7558
17.5878
17.4093
17.233
17.0364
16.8563
16.6304
16.4404
16.2032
15.8972
15.7878
15.3375
15.0999
14.5448
14.4943
13.4766
-24.4985
-24.6152
-25.0007
-25.6259
-26.481
-27.5504
-28.7986
-30.1727
-31.6368
-33.2818
-35.1505
-37.2279
-39.4446
-41.6501
-43.5876
-44.9149
-45.3678
-44.5496
-43.4263
-41.3343
-38.5306
-35.2397
-31.7988
-28.5073
-25.5539
-22.9335
-20.4829
-18.0038
-15.3456
-12.379
-8.96663
-4.89908
0.0788094
6.15492
13.4232
21.9981
32.0685
43.8109
57.4129
73.1822
91.4637
112.657
137.347
164.286
192.868
225.004
258.603
283.015
293.219
281.886
248.687
195.886
148.559
107.29
77.9627
63.7767
60.713
60.1529
63.3472
71.9639
84.6241
99.1433
106.945
105.201
106.424
108.04
109.029
109.212
105.054
95.5633
79.4503
53.9992
24.7702
2.46865
5.91283
6.81321
6.3187
5.73568
5.47609
5.52429
5.86748
6.33055
7.01042
7.90811
8.99222
10.2157
11.5277
12.8778
14.2259
15.5286
16.7568
17.8819
18.8767
19.743
20.4769
21.0525
21.3431
21.4664
21.7025
21.7866
21.5007
21.1891
20.8441
20.4114
19.9261
19.4009
18.8441
18.2726
17.6977
17.129
16.5759
16.0449
15.5406
15.067
14.6286
14.2279
13.8635
13.5341
13.2394
12.9787
12.7506
12.552
12.3801
12.2327
12.1062
11.997
11.9017
11.8174
11.7417
11.6735
11.6113
11.5539
11.5007
11.4506
11.4029
11.357
11.3122
11.2676
11.2223
11.1759
11.1278
11.0777
11.0256
10.9716
10.9155
10.8574
10.7975
10.7357
10.6721
10.6067
10.5394
10.4704
10.3995
10.3269
10.2522
10.1753
10.0958
10.0134
9.92774
9.8387
9.74575
9.64923
9.54806
9.44343
9.33261
9.21978
9.09729
8.97802
8.83868
8.71753
8.54994
8.42824
8.24435
8.05516
7.95013
7.71389
7.48363
7.25761
7.19251
6.79072
-24.9398
-24.8993
-25.1494
-25.612
-26.2648
-27.0922
-28.081
-29.2337
-30.5679
-32.1423
-33.9667
-35.9926
-38.114
-40.1366
-41.7653
-42.7568
-42.9084
-41.3927
-39.0456
-36.9577
-33.3604
-29.3439
-25.2403
-21.3147
-17.7302
-14.4736
-11.3852
-8.30274
-5.14157
-1.78814
1.85727
5.94762
10.6496
16.0624
22.2125
29.1271
36.8514
45.3943
54.7516
64.9342
75.9144
87.7345
100.833
113.617
119.889
127.337
132.441
123.34
109.91
84.9223
60.2778
46.7944
30.1437
23.4597
22.6388
26.015
32.7369
39.3565
48.8867
60.3525
66.9073
78.9887
83.6256
86.3604
89.4992
91.9676
92.0458
89.8708
84.7296
74.9118
61.7074
44.0777
26.948
20.4579
20.3486
19.3206
17.2514
14.8604
13.0311
11.3013
10.2742
9.34722
8.69076
8.33059
8.21583
8.29375
8.52308
8.8427
9.22397
9.62455
10.0194
10.39
10.7134
10.9895
11.2134
11.3151
11.3409
11.2773
11.2933
11.2209
11.0082
10.7741
10.5488
10.2837
10.0129
9.74589
9.4739
9.21266
8.96587
8.73671
8.5282
8.34223
8.17912
8.0383
7.91995
7.82589
7.75206
7.69274
7.64857
7.61787
7.60038
7.59253
7.59109
7.59484
7.60175
7.60979
7.61732
7.62318
7.62705
7.6292
7.62965
7.6284
7.6255
7.62064
7.61371
7.60452
7.59287
7.57842
7.56078
7.53992
7.5159
7.48894
7.45926
7.42722
7.39288
7.35642
7.31794
7.27758
7.23529
7.19125
7.14538
7.09783
7.04878
6.99841
6.94673
6.89376
6.83944
6.78353
6.72589
6.66636
6.60433
6.54007
6.47228
6.40214
6.32653
6.24968
6.1635
6.08119
5.97908
5.896
5.76713
5.68809
5.53828
5.42383
5.30307
5.20915
4.95306
4.91605
4.8232
4.58406
-25.5716
-25.3214
-25.402
-25.6507
-26.058
-26.626
-27.3612
-28.2878
-29.4657
-30.959
-32.7832
-34.8748
-37.0967
-39.2323
-40.9851
-41.991
-42.0385
-40.9126
-38.0867
-35.8501
-32.5356
-28.4716
-24.2519
-20.3451
-16.7943
-13.6313
-10.6864
-7.77895
-4.96618
-2.10656
0.865395
4.04431
7.53467
11.3858
15.5919
20.1234
24.9477
30.0164
35.2394
40.5123
45.679
50.8273
55.7506
59.0887
58.2661
58.1363
54.0964
48.9876
39.8472
31.8186
25.9081
22.4979
21.071
21.8644
24.9401
30.1698
37.0327
44.7301
54.2966
64.4536
68.4741
77.9418
81.2122
83.6154
85.2575
85.5271
84.1205
80.7147
74.9154
66.1618
53.9985
42.383
32.7194
29.6983
27.2602
24.8459
22.4174
19.1046
16.2571
13.8436
12.0011
10.2679
8.91564
7.9455
7.28203
6.83371
6.58789
6.47898
6.45285
6.48771
6.53872
6.60965
6.67848
6.71987
6.73969
6.70778
6.6144
6.49246
6.40396
6.27028
6.07681
5.87778
5.69329
5.50053
5.32418
5.17154
5.0257
4.90815
4.81678
4.75141
4.71169
4.69774
4.70842
4.74093
4.79128
4.85938
4.95055
5.04276
5.14126
5.24464
5.3517
5.46031
5.56526
5.66504
5.75883
5.84487
5.92185
5.98935
6.04818
6.09974
6.14491
6.18441
6.21897
6.24879
6.27402
6.29479
6.31119
6.32312
6.33034
6.33298
6.33145
6.32631
6.3181
6.30741
6.2945
6.27963
6.26297
6.24459
6.22443
6.20261
6.17905
6.15385
6.12729
6.09972
6.07129
6.04223
6.01269
5.98257
5.95181
5.92033
5.88742
5.85329
5.81646
5.77804
5.73458
5.69028
5.6368
5.58736
5.51882
5.46877
5.3752
5.33058
5.21282
5.15401
5.02635
5.02916
4.75932
4.82867
4.72167
4.44201
-26.2226
-25.6353
-25.5773
-25.5748
-25.674
-25.9249
-26.36
-27.0205
-27.9752
-29.3106
-31.068
-33.1745
-35.4537
-37.6551
-39.4685
-40.5843
-40.7774
-40.0002
-37.6051
-34.6346
-32.4061
-28.7247
-24.9454
-21.3384
-18.0123
-15.1925
-12.706
-10.6506
-8.31445
-5.99322
-3.6477
-1.27245
1.21851
3.90978
6.74756
